File: demos/data/time-temp-water/ttw_80_25.csv
Angular Frequency,Storage Modulus,Loss Modulus
0.1,1152.54,164.605
0.2,1215.51,155.219
0.3,1257.34,155.042
0.4,1289.84,153
0.6,1317.82,149.65
0.8,1334.43,147.512
1.0,1346.79,146.914
2.0,1396.33,141.768
2.5,1410.43,140.833
3.0,1421.9,139.895
4.0,1440.99,139.005
5.0,1458.39,138.417
6.0,1470.13,137.531
7.0,1477.43,133.95
8.0,1472.33,119.732
10.0,1485.06,135.626
,,
,,
,,
,,
,,
,,
,,
,,
,,
,,
,,
,,
,,
,,
,,
,,
,,
,,
,,
,,
,,
,,
,,
,,
,,
,,
,,
,,
,,
,,
,,
,,
,,
,,
,,
,,
,,
,,
,,
,,
,,
,,
,,
,,
,,
,,
,,
,,
,,
,,
,,
,,
,,
,,
,,
,,
,,
,,
,,
,,
,,
,,
,,
,,
,,
,,
,,
,,
,,
,,
,,
,,
,,
,,
,,
,,
,,
,,