File: demos/data/time-temp-water/ttw_90_20.csv
Angular Frequency,Storage Modulus,Loss Modulus
0.1,,
0.2,419.3,168.01
0.3,461.69,173.03
0.4,488.33,176.96
0.6,525.47,178.3
0.8,552.4,180.47
1.0,571.39,178.18
2.0,648.31,183.66
2.5,680.19,186.65
3.0,697.73,186.59
4.0,728.57,186.36
5.0,748.71,185.54
6.0,779.6,188.59
7.0,793.15,187.75
8.0,824.32,195.07
10.0,831.88,188.81
,,
,,
,,
,,
,,
,,
,,
,,
,,
,,
,,
,,
,,
,,
,,
,,
,,
,,
,,
,,
,,
,,
,,
,,
,,
,,
,,
,,
,,
,,
,,
,,
,,
,,
,,
,,
,,
,,
,,
,,
,,
,,
,,
,,
,,
,,
,,
,,
,,
,,
,,
,,
,,
,,
,,
,,
,,
,,
,,
,,
,,
,,
,,