File: demos/data/time-temp-water/ttw_85_25.csv
Angular Frequency,Storage Modulus,Loss Modulus
0.1,1048.04,186.614
0.2,1110.2,180.076
0.3,1150.13,175.601
0.4,1169.59,173.274
0.6,1208.02,169.69
0.8,1244.41,167.979
1.0,1273.84,168.33
2.0,1334.45,163.313
2.5,1356.84,162.488
3.0,1369.61,161.11
4.0,1392.83,158.894
5.0,1406.53,157.088
6.0,1416.75,156.031
7.0,1425.92,154.424
8.0,1436.97,150.864
10.0,1439.91,153.705
,,
,,
,,
,,
,,
,,
,,
,,
,,
,,
,,
,,
,,
,,
,,
,,
,,
,,
,,
,,
,,
,,
,,
,,
,,
,,
,,
,,
,,
,,
,,
,,
,,
,,
,,
,,
,,
,,
,,
,,
,,
,,
,,
,,
,,
,,
,,
,,
,,
,,
,,
,,
,,
,,
,,
,,
,,
,,
,,
,,
,,
,,