File: demos/data/time-temp-water/ttw_70_20.csv
Angular Frequency,Storage Modulus,Loss Modulus
0.1,1710.0,156.0
0.2,1770.0,146.0
0.3,1800.0,142.0
0.4,1820.0,139.0
0.6,1850.0,136.0
0.8,1870.0,134.0
1.0,1890.0,133.0
2.0,1940.0,128.0
2.5,1950.0,127.0
3.0,1970.0,127.0
4.0,1980.0,126.0
5.0,2000.0,125.0
6.0,2010.0,124.0
7.0,2020.0,123.0
8.0,2010.0,119.0
10.0,2050.0,124.0
,,
,,
,,
,,
,,
,,
,,
,,
,,
,,
,,
,,
,,
,,
,,
,,
,,
,,
,,
,,
,,
,,
,,
,,
,,
,,
,,
,,
,,
,,
,,
,,
,,
,,
,,
,,
,,
,,
,,
,,
,,
,,
,,
,,
,,
,,
,,
,,
,,
,,
,,
,,
,,
,,
,,
,,
,,
,,
,,
,,
,,
,,
,,
,,
,,
,,
,,
,,
,,
,,
,,
,,
,,
,,
,,
,,
,,
,,
,,
,,
,,
,,
,,
,,
,,
,,
,,
,,
,,
,,
,,
,,
,,
,,
,,
,,