File: demos/data/time-temp-water/ttw_80_45.csv
Angular Frequency,Storage Modulus,Loss Modulus
0.1,1733.23,123.981
0.2,1772.32,121.442
0.3,1799.56,119.016
0.4,1814.93,118.323
0.6,1841.62,117.736
0.8,1858.03,117.283
1.0,1870.85,116.589
2.0,1905.02,116.052
2.5,1915.87,115.614
3.0,1926.36,116.021
4.0,1939.71,116.154
5.0,1949.55,116.01
6.0,1956.95,116.943
7.0,1961.42,117.956
8.0,1961.28,121.276
10.0,1968.93,116.977
,,
,,
,,
,,
,,
,,
,,
,,
,,
,,
,,
,,
,,
,,
,,
,,
,,
,,
,,
,,
,,
,,
,,
,,
,,
,,
,,
,,
,,
,,
,,
,,
,,
,,
,,
,,
,,
,,
,,
,,
,,
,,
,,
,,
,,
,,
,,
,,
,,
,,
,,
,,
,,
,,
,,
,,
,,
,,
,,
,,
,,
,,
,,
,,
,,
,,
,,
,,
,,
,,
,,
,,
,,
,,
,,
,,
,,
,,