File: demos/data/time-temp-water/ttw_80_40.csv
Angular Frequency,Storage Modulus,Loss Modulus
0.1,1656.66,128.37
0.2,1700.09,122.573
0.3,1716.75,119.659
0.4,1724.77,117.995
0.6,1742.13,116.384
0.8,1758.73,116.142
1.0,1773.1,115.248
2.0,1809.45,114.055
2.5,1821.87,113.786
3.0,1833.68,113.992
4.0,1847.41,113.871
5.0,1856.67,113.452
6.0,1862.1,114.25
7.0,1863,115.589
8.0,1856.09,121.878
10.0,1860.11,112.891
,,
,,
,,
,,
,,
,,
,,
,,
,,
,,
,,
,,
,,
,,
,,
,,
,,
,,
,,
,,
,,
,,
,,
,,
,,
,,
,,
,,
,,
,,
,,
,,
,,
,,
,,
,,
,,
,,
,,
,,
,,
,,
,,
,,
,,
,,
,,
,,
,,
,,
,,
,,
,,
,,
,,
,,
,,
,,
,,
,,
,,
,,
,,
,,
,,
,,
,,
,,
,,
,,
,,
,,
,,
,,
,,
,,
,,
,,