File: demos/data/time-temp-water/ttw_80_20.csv
Angular Frequency,Storage Modulus,Loss Modulus
0.1,661.707,209.404
0.2,733.724,205.616
0.3,777.998,204.191
0.4,797.919,201.661
0.6,840.404,200.48
0.8,871.167,199.257
1.0,898.609,198.296
2.0,976.392,194.161
2.5,999.178,191.223
3.0,1014.54,189.043
4.0,1042.81,186.294
5.0,1063.55,183.682
6.0,1082.07,182.454
7.0,1103.3,182.749
8.0,1134.2,185.784
10.0,1126.02,176.896
,,
,,
,,
,,
,,
,,
,,
,,
,,
,,
,,
,,
,,
,,
,,
,,
,,
,,
,,
,,
,,
,,
,,
,,
,,
,,
,,
,,
,,
,,
,,
,,
,,
,,
,,
,,
,,
,,
,,
,,
,,
,,
,,
,,
,,
,,
,,
,,
,,
,,
,,
,,
,,
,,
,,
,,
,,
,,
,,
,,
,,
,,
,,
,,
,,
,,
,,
,,
,,
,,
,,
,,
,,
,,
,,
,,
,,
,,