File: demos/data/time-temp-water/ttw_70_40.csv
Angular Frequency,Storage Modulus,Loss Modulus
0.1,2010.0,111.0
0.2,2050.0,106.0
0.3,2080.0,103.0
0.4,2090.0,109.0
0.6,2120.0,102.0
0.8,2130.0,101.0
1.0,2150.0,99.7
2.0,2180.0,96.8
2.5,2160.0,93.2
3.0,2170.0,99.9
4.0,2210.0,98.9
5.0,2180.0,94.1
6.0,2230.0,97.0
7.0,2190.0,94.7
8.0,2250.0,93.0
10.0,2190.0,95.7
,,
,,
,,
,,
,,
,,
,,
,,
,,
,,
,,
,,
,,
,,
,,
,,
,,
,,
,,
,,
,,
,,
,,
,,
,,
,,
,,
,,
,,
,,
,,
,,
,,
,,
,,
,,
,,
,,
,,
,,
,,
,,
,,
,,
,,
,,
,,
,,
,,
,,
,,
,,
,,
,,
,,
,,
,,
,,
,,
,,
,,
,,
,,
,,
,,
,,
,,
,,
,,
,,
,,
,,
,,
,,
,,
,,
,,
,,
,,
,,
,,
,,
,,
,,
,,
,,
,,
,,
,,
,,
,,
,,
,,
,,
,,
,,