File: demos/data/time-temp-water/ttw_95_27.csv
Angular Frequency,Storage Modulus,Loss Modulus
0.1,12.134,14.1052
0.2,19.4433,19.5319
0.3,23.5634,24.1548
0.4,27.6935,27.9283
0.6,34.4407,33.4502
0.8,40.3908,37.8209
1.0,44.7237,40.9419
2.0,63.223,54.9614
2.5,70.586,60.3972
3.0,78.1609,66.0774
4.0,89.5636,72.3669
5.0,98.8259,79.64
6.0,108.659,84.1009
7.0,116.333,89.5283
8.0,124.49,92.6687
10.0,138.212,101.083
,,
,,
,,
,,
,,
,,
,,
,,
,,
,,
,,
,,
,,
,,
,,
,,
,,
,,
,,
,,
,,
,,
,,
,,
,,
,,
,,
,,
,,
,,
,,
,,
,,
,,
,,
,,
,,
,,
,,
,,