File: demos/data/time-temp-water/ttw_85_40.csv
Angular Frequency,Storage Modulus,Loss Modulus
0.1,1994.92,167.99
0.2,2041.325,162.212
0.3,2067.84,160.416
0.4,2075.31,158.307
0.6,2105.8,156.386
0.8,2140.93,156.123
1.0,2162.2,154.99
2.0,2212.15,154.748
2.5,2229.58,154.636
3.0,2247.55,155.206
4.0,2267.78,155.435
5.0,2284.1,156.139
6.0,2297.37,159.839
7.0,2308.76,169.374
8.0,2317.53,202.909
10.0,2328.02,156.163
,,
,,
,,
,,
,,
,,
,,
,,
,,
,,
,,
,,
,,
,,
,,
,,
,,
,,
,,
,,
,,
,,
,,
,,
,,
,,
,,
,,
,,
,,
,,
,,
,,
,,
,,
,,
,,
,,
,,
,,
,,
,,
,,
,,
,,
,,
,,
,,
,,
,,
,,
,,
,,
,,
,,
,,
,,
,,
,,
,,
,,
,,