File: demos/data/time-temp-water/ttw_85_35.csv
Angular Frequency,Storage Modulus,Loss Modulus
0.1,1539.5,148.032
0.2,1579.35,141.747
0.3,1599.52,139.477
0.4,1622.81,140.491
0.6,1660.21,139.315
0.8,1694.27,139.021
1.0,1711.39,137.774
2.0,1755.14,137.055
2.5,1767.12,136.314
3.0,1776.56,136.365
4.0,1789.41,135.9
5.0,1798.95,136.473
6.0,1805.87,137.039
7.0,1812.53,142.246
8.0,1825.25,161.674
10.0,1816.69,134.037
,,
,,
,,
,,
,,
,,
,,
,,
,,
,,
,,
,,
,,
,,
,,
,,
,,
,,
,,
,,
,,
,,
,,
,,
,,
,,
,,
,,
,,
,,
,,
,,
,,
,,
,,
,,
,,
,,
,,
,,
,,
,,
,,
,,
,,
,,
,,
,,
,,
,,
,,
,,
,,
,,
,,
,,
,,
,,
,,
,,
,,
,,