File: demos/data/time-temp-water/ttw_95_25.csv
Angular Frequency,Storage Modulus,Loss Modulus
0.1,5.43243,7.5527
0.2,8.46101,11.2309
0.3,11.3031,13.8509
0.4,13.5066,15.9732
0.6,16.9302,19.677
0.8,20.6845,21.804
1.0,23.0682,24.1334
2.0,34.3985,33.5841
2.5,38.3237,37.0563
3.0,41.6583,40.2335
4.0,47.9527,45.1239
5.0,54.7891,50.1012
6.0,59.2539,54.1963
7.0,64.8606,57.5732
8.0,67.7885,62.079
10.0,77.2412,66.5552
,,
,,
,,
,,
,,
,,
,,
,,
,,
,,
,,
,,
,,
,,
,,
,,
,,
,,
,,
,,
,,
,,
,,
,,
,,
,,
,,
,,
,,
,,
,,
,,
,,
,,
,,
,,
,,
,,
,,
,,