File: demos/data/time-temp-water/ttw_95_32.csv
Angular Frequency,Storage Modulus,Loss Modulus
0.1,209.123,117.34
0.2,268.626,130.544
0.3,303.409,138.106
0.4,330.329,143.463
0.6,366.574,147.629
0.8,395.189,150.719
1.0,421.157,153.075
2.0,488.802,159.125
2.5,510.998,159.978
3.0,527.057,159.497
4.0,555.289,160.191
5.0,578.388,160.985
6.0,599.399,161.453
7.0,613.317,161.028
8.0,642.1,168.378
10.0,648.374,160.949
,,
,,
,,
,,
,,
,,
,,
,,
,,
,,
,,
,,
,,
,,
,,
,,
,,
,,
,,
,,
,,
,,
,,
,,
,,
,,
,,
,,
,,
,,
,,
,,
,,
,,
,,
,,
,,
,,
,,
,,