File: demos/data/time-temp-water/ttw_85_30.csv
Angular Frequency,Storage Modulus,Loss Modulus
0.1,1313.88,161.432
0.2,1383.32,154.524
0.3,1413.05,151.089
0.4,1420.77,148.179
0.6,1449.13,145.754
0.8,1469.68,145.347
1.0,1481.84,144.798
2.0,1528.39,140.356
2.5,1539.99,139.342
3.0,1549.78,138.512
4.0,1564.26,137.41
5.0,1575.63,137.23
6.0,1585.33,136.964
7.0,1593.98,138.11
8.0,1601.2,143.7
10.0,1615.87,137.139
,,
,,
,,
,,
,,
,,
,,
,,
,,
,,
,,
,,
,,
,,
,,
,,
,,
,,
,,
,,
,,
,,
,,
,,
,,
,,
,,
,,
,,
,,
,,
,,
,,
,,
,,
,,
,,
,,
,,
,,
,,
,,
,,
,,
,,
,,
,,
,,
,,
,,
,,
,,
,,
,,
,,
,,
,,
,,
,,
,,
,,
,,