File: demos/data/time-temp-water/ttw_80_35.csv
Angular Frequency,Storage Modulus,Loss Modulus
0.1,1572.58,134.999
0.2,1616.79,129.221
0.3,1632.47,126.011
0.4,1641.18,124.806
0.6,1668.24,123.151
0.8,1694.89,123.024
1.0,1719.05,122.552
2.0,1760.32,121.57
2.5,1774.81,121.242
3.0,1788.53,121.641
4.0,1804.19,121.496
5.0,1815.09,121.57
6.0,1821.83,120.214
7.0,1823.31,117.051
8.0,1810.18,104.346
10.0,1827.92,119.73
,,
,,
,,
,,
,,
,,
,,
,,
,,
,,
,,
,,
,,
,,
,,
,,
,,
,,
,,
,,
,,
,,
,,
,,
,,
,,
,,
,,
,,
,,
,,
,,
,,
,,
,,
,,
,,
,,
,,
,,
,,
,,
,,
,,
,,
,,
,,
,,
,,
,,
,,
,,
,,
,,
,,
,,
,,
,,
,,
,,
,,
,,
,,
,,
,,
,,
,,
,,
,,
,,
,,
,,
,,
,,
,,
,,
,,
,,