File: demos/data/time-temp-water/ttw_85_20.csv
Angular Frequency,Storage Modulus,Loss Modulus
0.1,485.139,193.966
0.2,558.967,196.006
0.3,606.565,198.209
0.4,637.33,200.649
0.6,684.778,200.283
0.8,713.805,200.989
1.0,739.695,200.922
2.0,820.196,198.335
2.5,848.429,198.221
3.0,877.885,199.718
4.0,916.669,200.279
5.0,947.584,200.397
6.0,966.431,198.864
7.0,981.026,197.666
8.0,1019.24,203.508
10.0,1016.55,195.978
,,
,,
,,
,,
,,
,,
,,
,,
,,
,,
,,
,,
,,
,,
,,
,,
,,
,,
,,
,,
,,
,,
,,
,,
,,
,,
,,
,,
,,
,,
,,
,,
,,
,,
,,
,,
,,
,,
,,
,,
,,
,,
,,
,,
,,
,,
,,
,,
,,
,,
,,
,,
,,
,,
,,
,,
,,
,,
,,
,,
,,
,,