File: demos/data/time-temp-water/ttw_70_45.csv
Angular Frequency,Storage Modulus,Loss Modulus
0.1,2070.0,106.0
0.2,2100.0,100.0
0.3,2100.0,99.5
0.4,2110.0,99.1
0.6,2120.0,98.3
0.8,2160.0,94.2
1.0,2170.0,93.1
2.0,2210.0,91.9
2.5,2210.0,94.0
3.0,2230.0,91.4
4.0,2220.0,91.8
5.0,2250.0,91.9
6.0,2250.0,92.9
7.0,2230.0,89.2
8.0,2250.0,108.0
10.0,2270.0,91.3
,,
,,
,,
,,
,,
,,
,,
,,
,,
,,
,,
,,
,,
,,
,,
,,
,,
,,
,,
,,
,,
,,
,,
,,
,,
,,
,,
,,
,,
,,
,,
,,
,,
,,
,,
,,
,,
,,
,,
,,
,,
,,
,,
,,
,,
,,
,,
,,
,,
,,
,,
,,
,,
,,
,,
,,
,,
,,
,,
,,
,,
,,
,,
,,
,,
,,
,,
,,
,,
,,
,,
,,
,,
,,
,,
,,
,,
,,
,,
,,
,,
,,
,,
,,
,,
,,
,,
,,
,,
,,
,,
,,
,,
,,
,,
,,