File: demos/data/time-temp-water/ttw_95_30.csv
Angular Frequency,Storage Modulus,Loss Modulus
0.1,44.2157,45.0045
0.2,65.0891,58.8078
0.3,80.0825,69.6405
0.4,93.1437,77.8907
0.6,114.387,88.2521
0.8,129.072,98.598
1.0,142.146,104.275
2.0,196.597,131.707
2.5,215.086,137.595
3.0,233.518,144.654
4.0,259.189,152.846
5.0,281.806,161.086
6.0,301.911,166.777
7.0,319.541,171.646
8.0,329.767,175.034
10.0,362.797,183.088
,,
,,
,,
,,
,,
,,
,,
,,
,,
,,
,,
,,
,,
,,
,,
,,
,,
,,
,,
,,
,,
,,
,,
,,
,,
,,
,,
,,
,,
,,
,,
,,
,,
,,
,,
,,
,,
,,
,,
,,