File: demos/data/time-temp-water/ttw_70_35.csv
Angular Frequency,Storage Modulus,Loss Modulus
0.1,1970.0,114.0
0.2,2010.0,112.0
0.3,2010.0,112.0
0.4,2040.0,113.0
0.6,2040.0,106.0
0.8,2090.0,106.0
1.0,2060.0,103.0
2.0,2090.0,99.7
2.5,2110.0,99.5
3.0,2120.0,98.8
4.0,2190.0,99.3
5.0,2180.0,102.0
6.0,2180.0,101.0
7.0,2150.0,96.3
8.0,2160.0,95.7
10.0,2170.0,95.7
,,
,,
,,
,,
,,
,,
,,
,,
,,
,,
,,
,,
,,
,,
,,
,,
,,
,,
,,
,,
,,
,,
,,
,,
,,
,,
,,
,,
,,
,,
,,
,,
,,
,,
,,
,,
,,
,,
,,
,,
,,
,,
,,
,,
,,
,,
,,
,,
,,
,,
,,
,,
,,
,,
,,
,,
,,
,,
,,
,,
,,
,,
,,
,,
,,
,,
,,
,,
,,
,,
,,
,,
,,
,,
,,
,,
,,
,,
,,
,,
,,
,,
,,
,,
,,
,,
,,
,,
,,
,,
,,
,,
,,
,,
,,
,,