File: demos/data/time-temp-water/ttw_70_50.csv
Angular Frequency,Storage Modulus,Loss Modulus
0.1,2050.0,93.2
0.2,2050.0,89.5
0.3,2070.0,89.9
0.4,2090.0,88.5
0.6,2160.0,88.1
0.8,2150.0,86.6
1.0,2180.0,92.8
2.0,2180.0,84.9
2.5,2190.0,84.7
3.0,2200.0,84.5
4.0,2200.0,84.2
5.0,2210.0,83.7
6.0,2220.0,82.0
7.0,2220.0,75.5
8.0,2210.0,54.4
10.0,2230.0,84.9
,,
,,
,,
,,
,,
,,
,,
,,
,,
,,
,,
,,
,,
,,
,,
,,
,,
,,
,,
,,
,,
,,
,,
,,
,,
,,
,,
,,
,,
,,
,,
,,
,,
,,
,,
,,
,,
,,
,,
,,
,,
,,
,,
,,
,,
,,
,,
,,
,,
,,
,,
,,
,,
,,
,,
,,
,,
,,
,,
,,
,,
,,
,,
,,
,,
,,
,,
,,
,,
,,
,,
,,
,,
,,
,,
,,
,,
,,
,,
,,
,,
,,
,,
,,
,,
,,
,,
,,
,,
,,
,,
,,
,,
,,
,,
,,