File: demos/data/time-temp-water/ttw_90_27.csv
Angular Frequency,Storage Modulus,Loss Modulus
0.1,1215.68,166.42
0.2,1285.61,163.67
0.3,1325.8,164.07
0.4,1357.6,162.4
0.6,1385.42,160.0
0.8,1403.32,157.87
1.0,1415.04,157.45
2.0,1466.78,154.25
2.5,1481.01,153.45
3.0,1491.8,152.84
4.0,1513.68,152.62
5.0,1527.84,151.99
6.0,1539.23,151.37
7.0,1548.76,149.69
8.0,1557.48,143.9
10.0,1559.6,149.7
,,
,,
,,
,,
,,
,,
,,
,,
,,
,,
,,
,,
,,
,,
,,
,,
,,
,,
,,
,,
,,
,,
,,
,,
,,
,,
,,
,,
,,
,,
,,
,,
,,
,,
,,
,,
,,
,,
,,
,,
,,
,,
,,
,,
,,
,,
,,
,,
,,
,,
,,
,,
,,
,,
,,
,,
,,
,,
,,
,,
,,
,,
,,