File: demos/data/time-temp-water/ttw_90_25.csv
Angular Frequency,Storage Modulus,Loss Modulus
0.1,1048.29,167.41
0.2,1105.99,160.24
0.3,1140.51,160.56
0.4,1170.43,159.05
0.6,1206.77,158.08
0.8,1232.46,157.79
1.0,1253.86,158.83
2.0,1306.62,157.69
2.5,1325.45,154.32
3.0,1338.43,153.61
4.0,1359.26,152.98
5.0,1378.34,152.78
6.0,1391.35,152.12
7.0,1401.22,150.68
8.0,1397.39,147.26
10.0,1416.56,149.75
,,
,,
,,
,,
,,
,,
,,
,,
,,
,,
,,
,,
,,
,,
,,
,,
,,
,,
,,
,,
,,
,,
,,
,,
,,
,,
,,
,,
,,
,,
,,
,,
,,
,,
,,
,,
,,
,,
,,
,,
,,
,,
,,
,,
,,
,,
,,
,,
,,
,,
,,
,,
,,
,,
,,
,,
,,
,,
,,
,,
,,
,,
,,