File: demos/bayesian_optimization/data/metal_coordinating_polymer_network/epstein.csv
Angular Frequency	Storage Modulus	Loss Modulus
0.100783	8.27672	27.7959
0.147252	12.4043	39.0821
0.228304	18.7997	55.9015
0.325366	26.5792	75.6136
0.475382	39.6108	100.93
0.694567	56.7042	148.141
1.01481	84.1305	183.092
1.48271	116.977	251.847
2.16634	165.319	332.082
3.16518	229.728	416.681
4.6332	319.772	563.367
6.69456	437.618	749.03
9.89411	596.437	898.474
14.5616	816.953	1078.04
21.9122	1105.08	1328.52
31.0999	1451.9	1583.8
46.9623	1832.97	1863.7
65.35	2342.78	2036.86
99.4188	2930.48	2216.5