File: demos/data/pi_linear/PI_13.5k_T-35.csv
Angular Frequency,Storage Modulus,Loss Modulus
0.0453382,116.241,5987.99
0.0453382,117.694,6012
0.0482162,141.402,6522.5
0.0562614,180.82,7709.52
0.0665475,265.915,8835.15
0.0665475,238.203,8782.26
0.0707706,305.251,9563.61
0.08258,351.793,11204.3
0.0976785,513.086,12875.9
0.0976785,525.585,12955.9
0.103879,634.411,14020.6
0.12121,812.382,16410.5
0.13301,1059.31,18512.4
0.14337,1109.61,18997.9
0.14337,1094.62,18864.5
0.152473,1362.54,20496
0.177913,1773.41,23943.7
0.195217,2283.97,27287.1
0.210443,2374.02,27572.9
0.210443,2338.43,27705.4
0.223799,2823.2,29925.7
0.286536,4830.83,40000
0.308887,4980.38,40036.8
0.308887,4968.79,40235.4
0.328493,5912.66,43273.7
0.346353,6714.75,46490.4
0.420578,10194,57671.4
0.453382,10370.4,57489.4
0.453382,10643.6,57950.2
0.482162,12231.9,61804.4
0.508368,13801.5,66179.6
0.617314,21185.2,82199.2
0.665475,20966.2,80765.2
0.665475,21177.8,81164.4
0.707706,24309.9,85990.8
0.746199,27221.8,91742.8
0.906114,40341.1,111500
1.03879,45368.3,114777
1.09526,49995.3,121399
1.32999,69799.9,142351
1.52473,77291.6,144689
1.60762,83792.6,151634
1.95214,108374,170809
2.23799,117940,171666
2.35967,126155,178714
2.86536,153632,196905
3.28493,163288,195347
3.46353,172484,202571
4.20578,201039,222267
5.08368,220042,226920
6.17314,250634,251459
7.46199,268661,256850
9.06114,301970,287787
10.9526,320699,296193
13.2999,359059,336598
16.0762,378249,347651
19.5214,422237,401069
23.5967,444702,415323
28.6536,495383,485292
42.0578,580522,597831
61.7314,682218,747004
90.6114,802657,940284
132.999,946332,1.19941e+06
195.214,1.12518e+06,1.54681e+06
286.536,1.34827e+06,2.01721e+06