File: demos/data/pi_linear/PI_1131k_T-35.csv
Angular Frequency,Storage Modulus,Loss Modulus
4.18118e-08,3461.39,22800.8
6.11533e-08,6725.25,32506.8
8.98812e-08,13032.3,45345.8
1.31977e-07,24488.5,61063.7
1.61466e-07,32227.3,68963.7
1.937e-07,43090.6,77512.8
2.36157e-07,54583.1,84548.6
2.84434e-07,69292.5,90902.1
3.47096e-07,83433.6,95165.3
4.17549e-07,101403,97910.2
5.0966e-07,114931,98608.6
6.12671e-07,132724,97426.9
7.48014e-07,144568,95419.4
8.99381e-07,161310,91315.3
1.09841e-06,170499,88565.7
1.09841e-06,170581,88582.1
1.32034e-06,184821,83582.3
1.61246e-06,192454,80731.4
1.61246e-06,192651,80805.2
1.93785e-06,204886,75676.9
2.36597e-06,211695,73025.1
2.36597e-06,211564,72980
2.84434e-06,222473,67949.4
3.47316e-06,228403,65648.3
3.47316e-06,228288,65539.3
4.17492e-06,237760,60520.4
5.0988e-06,243004,58574.9
5.0988e-06,242857,58606.8
6.12785e-06,251090,54102.4
7.48344e-06,255367,52156.4
7.48344e-06,255597,52313.9
8.99466e-06,262643,48280.8
1.09841e-05,266730,46904.6
1.09841e-05,266484,46817.7
1.16553e-05,268838,46041.7
1.32023e-05,273010,43460.9
1.41256e-05,274576,43875.8
1.61224e-05,276470,42174.3
1.61224e-05,276765,42268.5
1.71063e-05,278539,41622.1
1.93782e-05,282303,39380
2.0736e-05,283844,39686.3
2.3664e-05,285561,38242.4
2.3664e-05,285881,38278.5
2.51083e-05,287457,37770.2
2.84434e-05,290745,35819.9
3.04416e-05,292263,36146.5
3.47349e-05,293997,34774.5
3.47349e-05,294104,34924.5
3.68539e-05,295660,34540.5
4.17492e-05,298704,32843.6
4.46787e-05,300352,33580.2
5.09836e-05,301933,32061.7
5.09836e-05,301589,32101.1
5.40932e-05,303340,31732
6.12785e-05,306032,30382.6
6.40901e-05,307981,30735.7
6.55786e-05,307567,30553.1
7.48333e-05,308894,29708
7.48333e-05,309353,29661.3
7.93998e-05,310532,29189.6
8.99466e-05,313102,27882.6
9.4088e-05,314876,28306.1
9.62563e-05,314591,28157.5
0.000109841,316075,27337.1
0.000109841,315780,27274.8
0.000116542,317227,26943.6
0.000132023,319479,25777
0.000138092,321289,26046
0.000141283,320966,25864
0.000161224,322421,25031.7
0.000167628,324551,25037.1
0.00017106,323543,24890.4
0.000193782,325396,23747.9
0.000202688,327283,23949.9
0.000207379,326968,23790.5
0.00023664,328119,23108.4
0.000246072,330189,23009
0.000251083,329110,22837.3
0.000284434,330829,21951.1
0.000297506,332714,21937.8
0.00030439,332398,21844.3
0.000347349,333464,21261.3
0.000361248,335312,21200.7
0.000368539,334424,21014.9
0.000417492,335771,20336.6
0.000436672,337745,20224.4
0.000446781,337448,20154.5
0.000509836,338235,19602
0.000530199,340141,19420.1
0.000540932,339258,19274.2
0.000612785,340425,19046.5
0.000640941,342392,18585
0.000655786,342134,18465.6
0.000748333,342818,18105
0.000778216,344473,17790.2
0.000793998,343746,17720.4
0.000856788,344928,17489.6
0.000899466,344681,17698.7
0.000940778,346664,17068.7
0.000962563,346395,17023.5
0.00109841,346983,16776.9
0.00114227,348612,16439.1
0.00116542,347848,16461.4
0.00125774,348870,16188.2
0.00138088,350687,15954.7
0.00141283,350318,15659.4
0.00161224,350746,15622.6
0.00167659,352411,15230.5
0.0017106,351553,15241.1
0.00184643,352575,15039.8
0.00202684,354236,14652.5
0.00207379,353913,14628.7
0.0023664,354337,14744.6
0.00246087,355952,14140.6
0.00251083,355040,14316.4
0.00270998,356147,13925.6
0.00297506,357644,13728.5
0.0030439,357308,13632.7
0.00361209,359116,13315.5
0.00368539,358282,13595.6
0.00397766,359376,13072.6
0.00436672,360801,12881.2
0.00446781,360443,13029
0.00530183,362197,12485.9
0.00540932,361288,13062.5
0.00583841,362283,12384.8
0.00640941,363780,12334.4
0.00655786,363371,12382
0.007782,365104,12038.9
0.00856947,365199,11901.3
0.00940778,366527,11832.3
0.0114227,367762,11754.7
0.0125782,367954,11564.1
0.0138088,369185,11655.7
0.0167659,370346,11562.5
0.0184623,370538,11501.4
0.0202684,371691,11787.7
0.0246087,373023,11684.8
0.027099,372960,11900.4
0.0297506,374287,12280.9
0.0361209,375313,12261.5
0.0397758,375544,12545.4
0.0436672,376651,13163.9
0.043998,375184,12746.2
0.0530183,378026,13239.2
0.0583841,378175,13608.3
0.0645791,377955,13906.6
0.07782,380638,14870.9
0.0856947,380806,15196.5
0.0947884,380558,15785.4
0.114227,383435,17152.8
0.125782,383589,17674.8
0.139131,383398,18344
0.167659,386488,20408.8
0.184623,386791,20968.1
0.204217,386641,22216.4
0.27099,390438,25681.5
0.299749,390532,27251.2
0.397758,394817,32119
0.43998,395199,34352.4
0.583841,400118,40747.9
0.645791,401095,43597.7
0.856947,406909,52375.7
0.947884,408140,55969.5
1.39131,417887,72595
2.04217,430710,93976.2
2.65556,437031,110340
2.99749,447404,121242
3.89783,457272,142432
4.3998,469562,155918
5.72134,483399,182946
6.45791,498460,199476
8.39764,516550,234516
12.326,558835,299048
18.0921,612880,379810
26.5556,679947,483653
38.9783,763580,616107
57.2134,865591,785705
83.9764,993392,1.00961e+06