File: demos/data/pi_linear/PI_2.4k_T-35.csv
Angular Frequency,Storage Modulus,Loss Modulus
1.90166,73.8024,13515.2
3.01393,199.063,21483.5
4.517,372.861,31775.7
4.77674,509.973,34118
5.23979,586.441,40905.4
7.15897,995.255,50144.9
7.57058,1220.28,54165.9
8.17819,1050.83,56590.3
8.30448,1522.82,64989.7
11.3462,2524.46,79830.7
11.9986,3015.73,85687.5
12.9615,3128.6,89151.1
17.9825,6070.85,125850
18.6835,5107.08,128596
19.0166,7174.06,135407
20.5427,7505.45,141103
28.5002,14839.8,198545
29.6113,12709.8,203914
30.1393,17467.8,213420
32.558,18244.4,221660
45.17,35362.2,309656
46.9307,30103.8,317809
47.7674,41434.6,331487
51.601,43054,344687
71.5897,80163.6,474338
74.3798,68820.5,489615
75.7058,93506.1,504617
81.7819,94442.6,523442
113.462,165470,702452
117.885,144052,735090
129.615,189737,772658
179.825,308059,1.0068e+06
186.835,272410,1.07336e+06
205.427,338218,1.10238e+06
285.002,508274,1.40235e+06
296.113,459144,1.52707e+06
325.58,538885,1.53756e+06
469.307,703521,2.14984e+06
516.01,794074,2.14778e+06
743.798,1.00726e+06,3.04993e+06
817.819,1.11432e+06,3.02364e+06
1178.85,1.39676e+06,4.36833e+06
1296.15,1.53418e+06,4.31734e+06
1868.35,1.88523e+06,6.31974e+06