File: demos/data/pi_linear/PI_33.6k_T-35.csv
Angular Frequency,Storage Modulus,Loss Modulus
0.00192469,149.745,4574.68
0.0023127,174.462,5264.59
0.00251161,183.17,5579.82
0.00282507,202.333,6676.32
0.00339456,342.79,7721.58
0.0036865,429.612,8234.03
0.00400107,383.614,8891.09
0.00414656,540.399,9769.24
0.00498251,745.098,11302.2
0.00541104,834.147,12080.9
0.00587078,874.94,12906.4
0.00608646,1161.82,14219
0.00731334,1561.31,16503.5
0.00794219,1769.57,17629.2
0.00861812,2167.7,18793.1
0.00893366,2476.96,20726.5
0.0107345,3310.81,23909.5
0.0116578,3818.04,25555.2
0.0126519,4456.45,27250.3
0.0131127,5184.4,29889.3
0.0157559,6893.32,34222
0.0171112,7908.5,36521.8
0.018569,8987.78,38598.2
0.0192469,10574.6,42163.9
0.023127,13890.4,47803.3
0.0251157,15709.5,50516.7
0.0272553,17969.7,53251.6
0.0282507,20668.6,57396.2
0.0339456,26294.4,63803.7
0.0344856,25855.5,63446.5
0.036865,29450.8,66782.9
0.0400053,32724.3,69674.7
0.0414656,37181.6,74044.8
0.0498251,45635.4,79919
0.0506249,44937.1,79152.9
0.0541104,50024.7,82523.7
0.0587187,54832.6,84775.2
0.0608646,60468.9,88771.4
0.0731334,71154.5,92823.4
0.074282,70607.3,92364.7
0.0794219,76260,94445.9
0.0861893,81325.3,95508.1
0.0893366,88194.3,98673.5
0.107345,99491.7,100761
0.109044,98818.9,100144
0.116578,104480,101231
0.126508,109962,101806
0.131127,117011,104498
0.157559,127692,105102
0.160082,127292,104709
0.171112,132521,104755
0.185687,137514,104705
0.192469,144625,107504
0.23127,154908,108082
0.234951,154946,107702
0.251157,159755,107529
0.272553,164417,107338
0.339456,181462,110750
0.344856,182192,110054
0.36865,185886,110350
0.400053,190692,110699
0.498251,207611,114318
0.50618,208349,113700
0.541104,212066,113371
0.587187,215836,113509
0.731334,233834,118770
0.742958,233946,118587
0.794219,237172,118206
0.861893,241954,118098
1.09054,260388,125846
1.16578,263151,125121
1.26508,266971,125870
1.60068,287074,135824
1.71112,289483,135741
1.85687,294876,136472
2.34947,314249,150995
2.51157,317191,150835
2.72553,321966,153186
3.44856,344896,172061
3.6865,347607,171258
4.00053,352289,174371
5.0618,379392,200835
5.87187,386405,203328
7.42958,414865,236614
8.61893,424854,243369
10.9054,462119,287359
12.6508,469798,293442
16.0068,512274,351005
18.5687,524803,360150
23.4947,575146,434791
27.2553,591580,445547
34.4856,652232,546189
50.618,743003,688489
74.2958,855277,871201
109.054,992384,1.11796e+06
160.068,1.16001e+06,1.44204e+06
234.947,1.36598e+06,1.8822e+06
344.856,1.62796e+06,2.4706e+06