File: demos/data/pi_linear/PI_483.1k_T-35.csv
Angular Frequency,Storage Modulus,Loss Modulus
4.17688e-08,21.4935,1317.03
6.10904e-08,37.6619,1906.91
7.47333e-08,50.152,2274.11
8.97886e-08,71.773,2793.79
1.09694e-07,107.069,3335.05
1.31842e-07,135.219,4074.19
1.6125e-07,193.413,4850.58
1.935e-07,262.658,5929.88
2.35842e-07,387.974,7089.85
2.84141e-07,535.715,8657.57
3.46633e-07,750.46,10370
4.17119e-07,1047.55,12610.6
5.0898e-07,1551.11,15063.5
6.1204e-07,2136.41,18297.4
7.47015e-07,3094.59,21745
8.98455e-07,4380.31,26339.1
1.09694e-06,6230.92,31104.2
1.31898e-06,8839.98,37354
1.61031e-06,12492.5,43604
1.93585e-06,17219.3,51305.4
2.36281e-06,23702,58734.7
2.84141e-06,31852,67157.4
3.46852e-06,41796.3,74194.2
3.97639e-06,48736.2,77859.8
4.17062e-06,53743,81594.4
5.09199e-06,67053.5,86532.5
5.83734e-06,75475.7,88200.7
6.12154e-06,81797.1,91120.4
7.47344e-06,96345.8,92459.9
8.56514e-06,105023,91676.1
8.9854e-06,111435,93700.7
1.09694e-05,119473,90041.4
1.09694e-05,125368,91722
1.25733e-05,132809,89071.7
1.31887e-05,139553,90200.6
1.61009e-05,145027,85917.7
1.61009e-05,151135,86409.6
1.84584e-05,157018,83073.8
1.93583e-05,163321,84089
2.36324e-05,166843,78886
2.36324e-05,173237,79600.1
2.70911e-05,177716,76263.8
2.84141e-05,183925,76879
3.46885e-05,191929,73289.1
3.46885e-05,185690,72220
3.97639e-05,195597,69985.9
4.17062e-05,202111,70546
5.09155e-05,208752,66926.4
5.09155e-05,202202,65895.1
5.83654e-05,211489,63976
6.12154e-05,217819,64277
7.47333e-05,223812,61144.2
7.47333e-05,217122,60235.8
8.56673e-05,225561,58145.5
8.9854e-05,232295,58775.7
0.000109694,237364,56060.5
0.000109694,230551,55037.3
0.000125745,238797,53585.6
0.000131887,245306,54073.6
0.000161009,249776,51225.9
0.000161009,242701,50674.2
0.000184568,250658,49556.8
0.000193583,257474,50003.6
0.000202257,254100,48881
0.000236324,261377,47647.4
0.000236324,254105,46766.9
0.000270907,261981,46021.6
0.000284141,268785,46520.6
0.000296872,265187,45424.8
0.000346885,272166,44308.3
0.000346885,264746,43540.1
0.000360324,270431,43740.7
0.000397639,272330,42405.3
0.000417062,279434,43360.3
0.000435742,275373,42193.3
0.000509155,282315,41316.7
0.000509155,274707,40524
0.000528842,280457,40799.2
0.000583654,282073,39584
0.000612154,289404,40564.1
0.000639597,285139,39303.5
0.000747333,291735,38205.5
0.000747333,284078,37793.9
0.000776225,289793,37800.8
0.000856673,291236,36941.1
0.00089854,298603,37915.3
0.000938795,294264,36364.6
0.00109694,300786,35576.3
0.00109694,292858,35064.7
0.00113934,298512,34972.5
0.00125745,299886,33984.9
0.00137796,302657,33682.6
0.00161009,309049,33118.5
0.00161009,300777,32532.3
0.0016723,306496,32459.7
0.00184568,307784,31564
0.00202257,310336,31255.7
0.00236324,316543,30707.4
0.00236324,308287,30337.6
0.00245466,314093,30065.5
0.00270907,315060,29235.4
0.00296872,317587,28863.5
0.00346885,323388,28701.3
0.00346885,314952,28643
0.00360293,320973,28041.1
0.00396521,322074,27619.3
0.00397639,321584,27511.4
0.00435742,324009,27008.3
0.00528835,327411,25993.7
0.00582014,328457,25579
0.00583654,327937,25777.1
0.00639597,330315,25388.6
0.00776225,333114,24472.4
0.00854265,334166,23956.5
0.00856673,333684,24259.7
0.00938795,335890,23684.1
0.0113934,338678,23118.5
0.0125392,339542,22525
0.0125745,339089,23355.4
0.0137796,341143,22511.3
0.016723,343682,21918.2
0.0184049,344710,21816.4
0.0202257,346209,21646.1
0.0245466,348612,21065.5
0.0270146,349402,21259.8
0.0296872,350919,21105.6
0.029858,349391,21013.7
0.0360293,353192,20716
0.0396521,354076,20724
0.0435742,355423,21202.8
0.0438256,354186,20889
0.0528835,357644,20957
0.0582014,358683,20763
0.0639597,359998,21704.1
0.0643262,358371,21218.1
0.0776225,362050,21608.2
0.0854265,362910,21682.5
0.0944201,362754,21894.1
0.113934,366354,23081.7
0.125392,367080,23519.6
0.138589,367667,23993
0.16723,370843,25474.9
0.184049,371906,25740.4
0.20342,371882,26482.9
0.245466,375607,29186.2
0.270146,376617,29359.6
0.29858,376785,30571.4
0.396521,381832,34579.3
0.438256,382278,36268.5
0.582014,387959,42129.1
0.643262,388390,44062.4
0.854265,395169,52017.6
0.944201,395926,55303.3
1.25392,403984,65383.6
1.38589,405723,69129.4
2.0342,417563,88103.3
2.9858,433422,112301
3.87824,445400,135987
4.38256,453771,143979
5.69248,470407,173690
6.43262,480744,183254
8.35529,501919,221534
9.44201,514653,233277
12.2642,541903,281322
18.0012,592771,357695
26.4221,655908,454340
38.7824,735040,578333
56.9248,833162,739612
83.5529,951932,946200
122.642,1.09922e+06,1.22069e+06