File: demos/data/pi_linear/PI_94.9k_T-35.csv
Angular Frequency,Storage Modulus,Loss Modulus
2.04343e-05,43.4739,2226.35
2.92433e-05,91.0922,3207.54
2.99987e-05,85.7828,3279.99
3.48413e-05,105.41,3825.45
4.29087e-05,177.011,4690.98
4.40287e-05,177.892,4791.97
5.11412e-05,236.409,5610.06
6.29886e-05,363.539,6862.19
6.46246e-05,352.943,7030.36
7.50647e-05,471.73,8198.22
9.24709e-05,703.246,10035.9
9.4856e-05,745.172,10279.1
0.000110179,985.813,11989.1
0.000135718,1452.85,14622.2
0.000139227,1534.41,14978.6
0.000161722,2070.99,17432.4
0.000199205,3033.88,21344.6
0.000204362,3244.3,21749.1
0.000237375,4347.18,25132.2
0.000292393,6259.52,30354
0.000299961,6671.35,31025.2
0.000348413,8789.74,35690.7
0.000387756,10341.6,38435.9
0.000429167,12839.2,42314.6
0.000440281,13191,43049.5
0.000511412,17228.9,48921.8
0.000569226,20069.5,52209.5
0.000629946,24100.7,56482
0.000646246,25046.4,57336.1
0.000750647,31478.6,63460.6
0.000762176,32300.6,64373.9
0.000835227,35988,66835.1
0.000924629,41905.3,70225.6
0.00094856,43264.3,71096.9
0.00110179,51983.2,76867.8
0.00111872,53558.3,76508.5
0.00122609,58330.6,78394.5
0.00135716,65634,80384.6
0.00139227,67129.3,80992.3
0.00161722,77616.4,84258.5
0.00164203,79366.2,84307.2
0.00179996,84128.1,85481.7
0.00199205,91350.8,85347.3
0.00204362,93098.9,85507.4
0.00237375,103608,86800.7
0.00241023,105075,86456.7
0.00264178,110075,86206.4
0.00292393,116458,85127
0.00299961,117861,85535.1
0.00348413,127725,85612.7
0.00353772,129237,85193.9
0.00387756,133632,85093.2
0.00429167,138935,83100.5
0.00440281,140389,83471.2
0.00511412,149517,83552.4
0.00519263,151100,82851.2
0.00569149,155385,82007.9
0.00629946,159708,80610.3
0.00646246,161427,81422.8
0.00750647,170112,81465.4
0.00762176,171777,80392.7
0.00835382,176340,80363.6
0.00924629,179839,79031.6
0.0094856,181200,79165.7
0.0110179,190151,79402.6
0.0111872,191680,78138.3
0.012262,195195,77640.2
0.0134776,199447,77920.6
0.0135716,199470,76378.1
0.0139227,200679,76669.5
0.0161722,209774,77209.3
0.0164203,210545,75099.4
0.0179981,214155,74838
0.019781,218106,74119
0.0199205,217843,73592.6
0.0204362,219093,73955.1
0.0241023,228996,72729.1
0.0264174,232716,71421.2
0.0290341,235587,71763.7
0.0292393,235646,70684.1
0.0299961,236684,71331.7
0.0353772,246140,69593.6
0.0387756,249729,68824.2
0.0426163,252635,68918.1
0.0429167,252111,68108.2
0.0440281,253209,68934.3
0.0519263,262668,66976.9
0.0569149,265222,65958.3
0.0625511,269250,66155.1
0.0629946,267426,65920.3
0.0646246,268895,66546.4
0.0762176,278075,64637.9
0.0835382,280525,63012.7
0.0918146,284353,64886.5
0.0924629,282517,63947.4
0.111872,292396,63192
0.12262,295230,61524.2
0.134765,298217,63005.9
0.135716,296832,63079.5
0.164203,306477,62480.1
0.179981,308243,61068.2
0.197807,311718,61990.8
0.199205,310398,63211.5
0.241023,319832,63106.5
0.254871,321438,63491.3
0.264174,322492,62559.6
0.290341,325523,63408.7
0.353772,333003,65149.3
0.374095,334654,65409.6
0.387756,335724,64874.5
0.426163,338228,64910.1
0.519263,346119,68796.2
0.549097,348216,68854
0.56017,348872,69464.2
0.569149,348813,69283
0.625511,351768,69508.7
0.762176,360220,75673.3
0.805951,361462,74203.5
0.822362,362925,75076.3
0.835382,362559,75930.4
0.918146,365250,76817.2
1.183,375421,84138.9
1.20697,376118,85540.3
1.2262,376646,85011.5
1.34765,380303,87191.4
1.7364,390134,96963.8
1.77157,392256,98277.8
1.79981,393383,100015
1.97807,396594,102573
2.54867,408950,115064
2.60031,409587,116816
2.64174,410538,119070
2.90341,415922,121665
3.74095,429731,137891
3.81666,430424,141418
3.87756,433507,144300
4.26163,438787,148322
5.49097,454564,169068
5.60223,456810,173860
6.25511,466349,182644
8.05951,485130,211913
8.22291,487458,218075
9.18146,499609,227962
11.83,524798,263544
12.0695,526217,272744
13.4765,541851,282594
17.364,572010,329654
17.7157,574258,342825
19.7807,592838,353842
25.4867,631512,418205
26.0031,633781,433287
29.0341,658878,444761
37.4095,704658,527139
38.1666,710345,551783
54.9097,793687,669266
56.0223,797270,704350
80.5951,904322,855776
82.2291,909315,905094
118.3,1.03732e+06,1.0926e+06
120.695,1.0438e+06,1.16806e+06
173.64,1.20766e+06,1.41923e+06
177.157,1.21037e+06,1.52111e+06
254.867,1.40926e+06,1.84595e+06
260.031,1.41615e+06,1.99561e+06
374.095,1.67042e+06,2.43262e+06
381.666,1.66517e+06,2.64104e+06
560.223,1.9729e+06,3.52398e+06
822.291,2.34939e+06,4.74016e+06
1206.95,2.83603e+06,6.44941e+06
1771.57,3.46341e+06,8.90698e+06