File: demos/bayesian_optimization/data/polystyrene/ps_saos_mc_data.csv
Angular Frequency,Storage Modulus,Loss Modulus
0.000440982,104.175,820.72
0.000612965,168.616,1115.6
0.000855505,273.408,1509.95
0.00119506,426.252,2003.5
0.00166691,661.645,2644.73
0.00169934,706.654,2779.38
0.00232397,1008.86,3453.82
0.00236208,1075.88,3630.38
0.00324122,1523.17,4485.34
0.00329671,1612.43,4687.69
0.00454211,2224.33,5699.32
0.0046052,2382.94,6002.94
0.00630604,3178.63,7126.39
0.00642349,3417.98,7564.13
0.00877554,4452.74,8803.21
0.0089555,4800.53,9368.89
0.01,5293.2,9828.9
0.0122593,6138.7,10733.6
0.0124901,6638.14,11469.8
0.0139,7227.8,11940
0.0171101,8269.62,12879.3
0.0175032,8961.86,13767.6
0.0194,9670.3,14283.0
0.0238571,10967.1,15241.7
0.0243005,11899.2,16305
0.0271,12746,16811
0.03325,14201.1,17719.3
0.0338168,15355.3,18994.2
0.0378,16408,19456
0.0463031,18075.1,20313.3
0.0472415,19623.3,21804.3
0.0527,20659,22222
0.0648243,22589.2,22965.9
0.0659342,24552.4,24725.1
0.0735,25703,25069
0.0904013,27745.3,25597.6
0.0919341,30153.5,27557.1
0.103,31344,27788
0.10515,30337.6,26846.5
0.12568,33528.5,28151.8
0.12813,36425.6,30276.3
0.143,37575,30353
0.146158,36451.6,29464.4
0.175511,39911,30607.6
0.17843,43274,32896.6
0.199,44530,33081
0.20399,43141,32084.2
0.244745,46868.9,32925.2
0.249802,50679.5,35366.1
0.278,52112,35382
0.284955,50714.7,34269.9
0.34132,54304.9,35032.2
0.348364,58713.2,37631.9
0.388,60121,37746.0
0.397466,58305.4,36260.4
0.47626,62182.1,36945.3
0.484311,67225.2,39667.1
0.541,68763,39400
0.554138,66498.4,38247.9
0.661473,70419.1,38641.8
0.676336,76139.6,41514.5
0.754,77492,41148
0.77285,75199.3,39854.1
0.926062,78995.1,40161.4
0.943132,85431.5,43160.1
1.05,86569,42566
1.08304,83518.9,41269
1.29208,87792.6,41495.2
1.31529,94965.1,44597.1
1.47,95850,43865
1.50364,92655.9,42557.5
1.79921,96785,42706.7
1.83528,104852,45866.3
2.05,105000,45141.0
2.09248,102563,43803.2
2.50919,106342,43849.6
2.549,114838,47079.6
2.64101,100011,42102.7
2.85,115000,46179
2.92316,111524,44808.9
3.49699,115286,44990.5
3.56861,124824,48275.9
3.671,109816,43188.1
3.98,125000,47344
4.0798,120486,46214.9
4.8949,124231,46224.9
4.97906,134810,49576.1
5.12356,118640,45065.7
5.55,135000,48697
5.68859,130444,47271.4
6.79112,134170,47665
6.93329,144796,51067
7.15713,127465,46157
7.74,144000,50222
7.92828,140401,48794.9
9.48111,143114,49391.3
9.66922,154782,52944.3
9.98301,136289,47030.6
10.8,154000,52214
11.0407,150359,50654
13.2295,153053,51575.8
13.4757,164768,55362.9
13.9181,146094,49313.3
15.0,164000,54740
15.457,159321,53186.2
18.8626,175752,58520.5
19.4114,155899,52553.8
21.0,175000,58069
21.5557,169278,56436.3
26.1698,186737,62732.5
27.2024,165704,55680.6
29.3,185000,62496
29.9676,180231,60926.2
36.5357,197721,68256.8
37.7664,175509,60058.5
40.8,196000,68353.0
41.8495,191185,66734.4
50.9801,209704,75439.6
52.5561,186295,66768.1
56.9,208000,76003.0
58.358,202138,74266.3
73.4201,197080,75427.9
79.3,221000,85896
81.3858,214087,84002.8
102.471,208846,85613.3
111,236000,98559.0
113.562,228028,96590.1
142.879,223554,99030.5
154,252000,115000
157.724,243960,112520
199.132,239242,116679
215,271000.0,135000
220.814,261883,132435
277.306,257871,139231
300,293000,160000
308.088,283790,157329
388.228,279442,166685
429.01,308684,189193
541.407,304935,201983
598.301,337561,227032
752.688,334350,246105
833.836,372412,274828
1051.12,369648,300033
1167.16,414234,334573
1465.76,411810,368668
1619.3,464021,408259
2044.14,462796,454952
2260.72,522771,499868
2852.29,523587,563787
3154.49,594465,614380
3961.51,598105,703018
5546.12,687330,880489
7738.16,796166,1.10796e+06
10775.3,930494,1.39231e+06
15027.3,1.09816e+06,1.7649e+06
20943.2,1.31387e+06,2.25515e+06
29315.2,1.60802e+06,2.87286e+06
40671.5,1.99041e+06,3.66707e+06
56781.7,2.53949e+06,4.68679e+06
79230.3,3.30428e+06,5.96144e+06